Age [ka BP]	Depth ice/snow [m]	Age [year AD]	Depth top [m]	Depth bot [m]	d18O H2O [per mil SMOW]	Acc rate ice [kg/m**2/a]
-0.047	0.090000	1997	0.00000	0.18000	-44.04	64.76
-0.046	0.295000	1996	0.18000	0.41000	-44.04	82.75
-0.045	0.585000	1995	0.41000	0.76000	-44.04	125.93
-0.044	0.965000	1994	0.76000	1.17000	-44.30	145.85
-0.043	1.225000	1993	1.17000	1.28000	-47.35	38.53
-0.042	1.350000	1992	1.28000	1.42000	-46.01	49.60
-0.041	1.555000	1991	1.42000	1.69000	-42.73	97.42
-0.040	1.855000	1990	1.69000	2.02000	-40.84	121.56
-0.039	2.215000	1989	2.02000	2.41000	-43.92	142.09
-0.038	2.525000	1988	2.41000	2.64000	-45.08	85.39
-0.037	2.690000	1987	2.64000	2.74000	-45.05	37.56
-0.036	2.820000	1986	2.74000	2.90000	-46.01	60.69
-0.035	3.022500	1985	2.90000	3.14500	-44.01	93.65
-0.034	3.239000	1984	3.14500	3.33300	-45.24	72.64
-0.033	3.389000	1983	3.33300	3.44500	-44.18	44.27
-0.032	3.641000	1982	3.44500	3.83700	-44.47	162.37
-0.031	3.956000	1981	3.83700	4.07500	-43.09	101.09
-0.030	4.170000	1980	4.07500	4.26500	-40.95	80.96
-0.029	4.335000	1979	4.26500	4.40500	-46.45	59.80
-0.028	4.552500	1978	4.40500	4.70000	-47.47	126.41
-0.027	4.779000	1977	4.70000	4.85800	-44.31	67.93
-0.026	4.952000	1976	4.85800	5.04600	-42.88	81.04
-0.025	5.103000	1975	5.04600	5.16000	-43.86	49.25
-0.024	5.200000	1974	5.16000	5.24000	-45.23	34.61
-0.023	5.332000	1973	5.24000	5.42400	-44.21	79.75
-0.022	5.482000	1972	5.42400	5.54000	-43.02	50.39
-0.021	5.598000	1971	5.54000	5.65600	-45.70	50.47
-0.020	5.798000	1970	5.65600	5.94000	-46.34	123.70
-0.019	6.000000	1969	5.94000	6.06000	-46.62	51.93
-0.018	6.140000	1968	6.06000	6.22000	-44.47	68.81
-0.017	6.270000	1967	6.22000	6.32000	-43.51	42.77
-0.016	6.410000	1966	6.32000	6.50000	-45.62	77.43
-0.015	6.592000	1965	6.50000	6.68400	-44.59	81.57
-0.014	6.729000	1964	6.68400	6.77400	-43.58	40.72
-0.013	6.877000	1963	6.77400	6.98000	-44.78	93.38
-0.012	7.078000	1962	6.98000	7.17600	-43.44	87.99
-0.011	7.248000	1961	7.17600	7.32000	-44.25	64.28
-0.010	7.388000	1960	7.32000	7.45600	-44.57	61.24
-0.009	7.517000	1959	7.45600	7.57800	-46.06	55.47
-0.008	7.659000	1958	7.57800	7.74000	-45.29	74.45
-0.007	7.825000	1957	7.74000	7.91000	-47.79	78.83
-0.006	7.970000	1956	7.91000	8.03000	-45.04	55.36
-0.005	8.117500	1955	8.03000	8.20500	-45.41	80.19
-0.004	8.235000	1954	8.20500	8.26500	-47.67	27.34
-0.003	8.345000	1953	8.26500	8.42500	-47.07	73.03
-0.002	8.485000	1952	8.42500	8.54500	-45.41	54.97
-0.001	8.583500	1951	8.54500	8.62200	-45.19	35.37
0.000	8.694000	1950	8.62200	8.76600	-44.97	66.32
0.001	8.813000	1949	8.76600	8.86000	-46.81	43.47
0.002	8.904000	1948	8.86000	8.94800	-45.90	40.88
0.003	9.006000	1947	8.94800	9.06400	-46.57	54.12
0.004	9.107000	1946	9.06400	9.15000	-46.68	40.29
0.005	9.192000	1945	9.15000	9.23400	-46.15	39.52
0.006	9.292000	1944	9.23400	9.35000	-47.22	54.78
0.007	9.396000	1943	9.35000	9.44200	-47.73	43.53
0.008	9.507000	1942	9.44200	9.57200	-46.04	61.57
0.009	9.616000	1941	9.57200	9.66000	-44.31	41.72
0.010	9.695000	1940	9.66000	9.73000	-45.40	33.21
0.011	9.782000	1939	9.73000	9.83400	-44.95	49.35
0.012	9.905000	1938	9.83400	9.97600	-45.41	67.26
0.013	10.081000	1937	9.97600	10.18600	-43.00	99.18
0.014	10.243000	1936	10.18600	10.30000	-43.28	53.82
0.015	10.355000	1935	10.30000	10.41000	-43.92	52.32
0.016	10.475000	1934	10.41000	10.54000	-43.81	62.46
0.017	10.571000	1933	10.54000	10.60200	-45.11	30.04
0.018	10.669000	1932	10.60200	10.73600	-45.38	65.33
0.019	10.784000	1931	10.73600	10.83200	-47.36	47.10
0.020	10.891000	1930	10.83200	10.95000	-47.65	57.78
0.021	11.026000	1929	10.95000	11.10200	-46.52	74.17
0.022	11.157000	1928	11.10200	11.21200	-48.16	53.47
0.023	11.269000	1927	11.21200	11.32600	-49.15	55.33
0.024	11.383000	1926	11.32600	11.44000	-46.43	55.53
0.025	11.530000	1925	11.44000	11.62000	-44.90	88.20
0.026	11.663000	1924	11.62000	11.70600	-45.45	42.34
0.027	11.787000	1923	11.70600	11.86800	-44.74	80.06
0.028	11.917000	1922	11.86800	11.96600	-44.68	48.50
0.029	12.050000	1921	11.96600	12.13400	-46.13	83.27
0.030	12.245000	1920	12.13400	12.35600	-44.56	110.41
0.031	12.410000	1919	12.35600	12.46400	-44.94	54.13
0.032	12.505000	1918	12.46400	12.54600	-44.20	41.31
0.033	12.586000	1917	12.54600	12.62600	-45.03	40.48
0.034	12.682000	1916	12.62600	12.73800	-45.52	56.96
0.035	12.802000	1915	12.73800	12.86600	-44.45	65.30
0.036	12.948000	1914	12.86600	13.03000	-44.30	83.35
0.037	13.085000	1913	13.03000	13.14000	-46.27	55.69
0.038	13.184000	1912	13.14000	13.22800	-47.39	44.42
0.039	13.265000	1911	13.22800	13.30200	-47.04	37.31
0.040	13.340000	1910	13.30200	13.37800	-46.24	38.37
0.041	13.419000	1909	13.37800	13.46000	-45.24	41.50
0.042	13.550000	1908	13.46000	13.64000	-46.51	91.48
0.043	13.678000	1907	13.64000	13.71600	-48.07	38.77
0.044	13.766000	1906	13.71600	13.81600	-46.53	51.16
0.045	13.876000	1905	13.81600	13.93600	-45.24	61.52
0.046	13.973000	1904	13.93600	14.01000	-44.50	38.02
0.047	14.047000	1903	14.01000	14.08400	-44.50	38.07
0.048	14.125000	1902	14.08400	14.16600	-45.13	42.26
0.049	14.238000	1901	14.16600	14.31000	-44.69	74.35
0.050	14.367000	1900	14.31000	14.42400	-46.20	58.88
0.051	14.495000	1899	14.42400	14.56600	-46.98	73.31
0.052	14.620000	1898	14.56600	14.67400	-45.05	55.74
0.053	14.714000	1897	14.67400	14.75400	-44.04	41.28
0.054	14.805000	1896	14.75400	14.85600	-44.08	52.62
0.055	14.932000	1895	14.85600	15.00800	-45.60	78.40
0.056	15.084000	1894	15.00800	15.16000	-45.72	78.38
0.057	15.210000	1893	15.16000	15.26000	-46.71	51.56
0.058	15.316000	1892	15.26000	15.37200	-45.80	57.86
0.059	15.445000	1891	15.37200	15.51800	-44.43	75.71
0.060	15.578500	1890	15.51800	15.63900	-45.10	63.00
0.061	15.697000	1889	15.63900	15.75500	-44.67	60.61
0.062	15.842000	1888	15.75500	15.92900	-44.59	91.23
0.063	15.982000	1887	15.92900	16.03500	-45.83	55.74
0.064	16.104000	1886	16.03500	16.17300	-47.36	72.74
0.065	16.216000	1885	16.17300	16.25900	-48.17	45.44
0.066	16.294000	1884	16.25900	16.32900	-47.49	37.04
0.067	16.408000	1883	16.32900	16.48700	-45.59	83.85
0.068	16.559000	1882	16.48700	16.63100	-46.26	76.72
0.069	16.710000	1881	16.63100	16.78900	-47.30	84.48
0.070	16.838000	1880	16.78900	16.88700	-46.85	52.38
0.071	16.950000	1879	16.88700	17.01300	-46.18	67.17
0.072	17.048000	1878	17.01300	17.08300	-46.16	37.22
0.073	17.140000	1877	17.08300	17.19700	-46.11	60.49
0.074	17.288000	1876	17.19700	17.37900		96.61
0.075	17.419000	1875	17.37900	17.45900	-43.51	42.74
0.076	17.504000	1874	17.45900	17.54900	-44.34	48.28
0.077	17.601500	1873	17.54900	17.65400	-44.79	56.58
0.078	17.732000	1872	17.65400	17.81000	-44.74	84.56
0.079	17.890000	1871	17.81000	17.97000	-44.25	86.67
0.080	18.020000	1870	17.97000	18.07000	-45.93	54.07
0.081	18.104000	1869	18.07000	18.13800	-47.00	36.72
0.082	18.188000	1868	18.13800	18.23800	-46.34	53.94
0.083	18.300000	1867	18.23800	18.36200	-45.32	67.04
0.084	18.409000	1866	18.36200	18.45600	-45.25	51.11
0.085	18.529000	1865	18.45600	18.60200	-44.77	79.95
0.086	18.667000	1864	18.60200	18.73200	-44.62	71.74
0.087	18.800000	1863	18.73200	18.86800	-45.76	75.40
0.088	18.919000	1862	18.86800	18.97000	-43.84	56.44
0.089	19.028000	1861	18.97000	19.08600	-43.06	64.05
0.090	19.119000	1860	19.08600	19.15200	-43.97	36.38
0.091	19.213000	1859	19.15200	19.27400	-44.63	67.14
0.092	19.344000	1858	19.27400	19.41400	-45.80	77.16
0.093	19.454000	1857	19.41400	19.49400	-46.93	44.22
0.094	19.547500	1856	19.49400	19.60100	-48.05	59.28
0.095	19.640000	1855	19.60100	19.67900	-48.85	43.33
0.096	19.723000	1854	19.67900	19.76700	-48.33	48.98
0.097	19.810000	1853	19.76700	19.85300	-47.07	47.94
0.098	19.902000	1852	19.85300	19.95100	-46.13	54.71
0.099	19.985000	1851	19.95100	20.01900	-45.41	38.01
0.100	20.093000	1850	20.01900	20.16700	-43.27	82.85
0.101	20.227000	1849	20.16700	20.28700	-42.05	67.29
0.102	20.331000	1848	20.28700	20.37500	-43.52	49.29
0.103	20.431000	1847	20.37500	20.48700	-44.24	62.59
0.104	20.571000	1846	20.48700	20.65500	-43.36	93.60
0.105	20.717000	1845	20.65500	20.77900	-44.06	68.85
0.106	20.838000	1844	20.77900	20.89700	-44.79	65.68
0.107	20.949000	1843	20.89700	21.00100	-45.32	58.17
0.108	21.050000	1842	21.00100	21.09900	-45.66	55.08
0.109	21.134000	1841	21.09900	21.16900	-45.40	39.49
0.110	21.213000	1840	21.16900	21.25700	-44.54	49.81
0.111	21.327000	1839	21.25700	21.39700	-43.88	79.46
0.112	21.441000	1838	21.39700	21.48500	-44.01	49.97
0.113	21.519000	1837	21.48500	21.55300	-44.16	38.62
0.114	21.617000	1836	21.55300	21.68100	-44.82	72.71
0.115	21.723000	1835	21.68100	21.76500	-44.14	47.73
0.116	21.829000	1834	21.76500	21.89300	-41.68	72.75
0.117	21.961000	1833	21.89300	22.02900	-41.34	77.32
0.118	22.075000	1832	22.02900	22.12100	-43.16	52.31
0.119	22.162000	1831	22.12100	22.20300	-43.74	46.63
0.120	22.243000	1830	22.20300	22.28300	-44.42	45.53
0.121	22.369000	1829	22.28300	22.45500	-44.50	98.06
0.122	22.530500	1828	22.45500	22.60600	-44.82	86.30
0.123	22.656000	1827	22.60600	22.70600	-45.08	57.25
0.124	22.761000	1826	22.70600	22.81600	-44.72	63.06
0.125	22.861000	1825	22.81600	22.90600	-44.27	51.62
0.126	22.958000	1824	22.90600	23.01000	-44.08	59.66
0.127	23.062000	1823	23.01000	23.11400	-44.69	59.67
0.128	23.193000	1822	23.11400	23.27200	-45.63	90.67
0.129	23.319000	1821	23.27200	23.36600	-47.09	53.99
0.130	23.435000	1820	23.36600	23.50400	-45.88	79.38
0.131	23.576500	1819	23.50400	23.64900	-44.13	83.54
0.132	23.691000	1818	23.64900	23.73300	-43.72	48.47
0.133	23.803000	1817	23.73300	23.87300	-44.90	80.91
0.134	23.902000	1816	23.87300	23.93100	-44.81	33.59
0.135	23.981000	1815	23.93100	24.03100	-45.10	58.02
0.136	24.058000	1814	24.03100	24.08500	-45.42	31.38
0.137	24.138000	1813	24.08500	24.19100	-45.02	61.71
0.138	24.243000	1812	24.19100	24.29500	-43.15	60.68
0.139	24.385000	1811	24.29500	24.47500	-43.33	105.08
0.140	24.511000	1810	24.47500	24.54700	-44.52	42.04
0.141	24.584000	1809	24.54700	24.62100	-44.56	43.21
0.142	24.670000	1808	24.62100	24.71900	-44.45	57.24
0.143	24.754000	1807	24.71900	24.78900	-43.64	40.91
0.144	24.840000	1806	24.78900	24.89100	-43.22	59.72
0.145	24.960000	1805	24.89100	25.02900	-44.66	81.01
0.146	25.082000	1804	25.02900	25.13500	-45.78	62.40
0.147	25.200000	1803	25.13500	25.26500	-44.75	76.71
0.148	25.332000	1802	25.26500	25.39900	-43.71	79.26
0.149	25.439000	1801	25.39900	25.47900	-44.30	47.39
0.150	25.545000	1800	25.47900	25.61100	-45.49	78.34
0.151	25.681000	1799	25.61100	25.75100	-44.49	83.24
0.152	25.813000	1798	25.75100	25.87500	-44.33	73.81
0.153	25.935000	1797	25.87500	25.99500	-46.13	71.42
0.154	26.059000	1796	25.99500	26.12300	-46.07	76.17
0.155	26.180000	1795	26.12300	26.23700	-44.97	67.83
0.156	26.320000	1794	26.23700	26.40300	-44.24	98.70
0.157	26.458000	1793	26.40300	26.51300	-44.92	65.33
0.158	26.568000	1792	26.51300	26.62300	-45.47	65.26
0.159	26.656000	1791	26.62300	26.68900	-45.78	39.13
0.160	26.738000	1790	26.68900	26.78700	-46.83	58.06
0.161	26.823000	1789	26.78700	26.85900	-48.30	42.68
0.162	26.912000	1788	26.85900	26.96500	-47.83	62.94
0.163	27.027000	1787	26.96500	27.08900	-46.41	73.78
0.164	27.127000	1786	27.08900	27.16500	-45.34	45.30
0.165	27.225000	1785	27.16500	27.28500	-44.36	71.63
0.166	27.339000	1784	27.28500	27.39300	-44.46	64.54
0.167	27.443000	1783	27.39300	27.49300	-46.16	59.81
0.168	27.572000	1782	27.49300	27.65100	-47.11	94.60
0.169	27.688000	1781	27.65100	27.72500	-47.23	44.35
0.170	27.782000	1780	27.72500	27.83900	-47.10	68.39
0.171	27.891000	1779	27.83900	27.94300	-46.10	62.49
0.172	27.998000	1778	27.94300	28.05300	-45.19	66.19
0.173	28.086000	1777	28.05300	28.11900	-45.05	39.77
0.174	28.166000	1776	28.11900	28.21300	-45.18	56.70
0.175	28.293000	1775	28.21300	28.37300	-45.21	96.66
0.176	28.416000	1774	28.37300	28.45900	-45.29	52.02
0.177	28.504000	1773	28.45900	28.54900	-46.31	54.48
0.178	28.589000	1772	28.54900	28.62900	-46.14	48.46
0.179	28.672000	1771	28.62900	28.71500	-46.66	52.14
0.180	28.776000	1770	28.71500	28.83700	-45.86	74.03
0.181	28.881000	1769	28.83700	28.92500	-44.91	53.45
0.182	28.965000	1768	28.92500	29.00500	-44.84	48.62
0.183	29.055000	1767	29.00500	29.10500	-43.98	60.82
0.184	29.149000	1766	29.10500	29.19300	-42.82	53.57
0.185	29.220000	1765	29.19300	29.24700	-43.79	32.89
0.186	29.305000	1764	29.24700	29.36300	-45.67	70.73
0.187	29.416000	1763	29.36300	29.46900	-45.72	64.74
0.188	29.532500	1762	29.46900	29.59600	-44.79	77.71
0.189	29.631000	1761	29.59600	29.66600	-44.21	42.88
0.190	29.696000	1760	29.66600	29.72600	-43.63	36.80
0.191	29.793000	1759	29.72600	29.86000	-44.13	82.35
0.192	29.915000	1758	29.86000	29.97000	-45.48	67.84
0.193	30.013000	1757	29.97000	30.05600	-45.09	53.18
0.194	30.131000	1756	30.05600	30.20600	-43.66	93.05
0.195	30.256000	1755	30.20600	30.30600	-44.13	62.22
0.196	30.355000	1754	30.30600	30.40400	-44.92	60.79
0.197	30.433000	1753	30.40400	30.46200	-45.42	35.86
0.198	30.504000	1752	30.46200	30.54600	-45.90	51.76
0.199	30.601000	1751	30.54600	30.65600	-45.74	67.50
0.200	30.718000	1750	30.65600	30.78000	-45.06	75.70
0.201	30.843000	1749	30.78000	30.90600	-45.17	76.96
0.202	30.938000	1748	30.90600	30.97000	-45.70	39.16
0.203	31.020000	1747	30.97000	31.07000	-45.92	61.29
0.204	31.118000	1746	31.07000	31.16600	-46.07	58.94
0.205	31.214000	1745	31.16600	31.26200	-45.38	59.06
0.206	31.317000	1744	31.26200	31.37200	-44.29	67.72
0.207	31.421000	1743	31.37200	31.47000	-44.41	60.28
0.208	31.528000	1742	31.47000	31.58600	-45.65	71.29
0.209	31.634000	1741	31.58600	31.68200	-45.94	58.94
0.210	31.718000	1740	31.68200	31.75400	-46.39	44.17
0.211	31.786000	1739	31.75400	31.81800	-46.17	39.28
0.212	31.846000	1738	31.81800	31.87400	-45.32	34.41
0.213	31.922000	1737	31.87400	31.97000	-44.16	59.10
0.214	32.004000	1736	31.97000	32.03800	-43.59	41.96
0.215	32.081000	1735	32.03800	32.12400	-44.48	53.18
0.216	32.162000	1734	32.12400	32.20000	-45.23	47.10
0.217	32.281000	1733	32.20000	32.36200	-45.14	100.53
0.218	32.422000	1732	32.36200	32.48200	-44.16	74.50
0.219	32.553000	1731	32.48200	32.62400	-44.34	88.19
0.220	32.680000	1730	32.62400	32.73600	-44.57	69.58
0.221	32.794000	1729	32.73600	32.85200	-44.74	72.08
0.222	32.886000	1728	32.85200	32.92000	-45.83	42.24
0.223	32.956000	1727	32.92000	32.99200	-45.65	44.72
0.224	33.051000	1726	32.99200	33.11000	-44.56	73.27
0.225	33.164000	1725	33.11000	33.21800	-43.93	67.04
0.226	33.266000	1724	33.21800	33.31400	-44.49	59.66
0.227	33.368000	1723	33.31400	33.42200	-45.88	67.26
0.228	33.468000	1722	33.42200	33.51400	-46.05	57.41
0.229	33.561000	1721	33.51400	33.60800	-45.47	58.77
0.230	33.660000	1720	33.60800	33.71200	-45.23	65.15
0.231	33.748000	1719	33.71200	33.78400	-44.98	45.18
0.232	33.823000	1718	33.78400	33.86200	-44.79	48.99
0.233	33.898000	1717	33.86200	33.93400	-44.59	45.25
0.234	33.996000	1716	33.93400	34.05800	-44.20	78.00
0.235	34.109000	1715	34.05800	34.16000	-44.98	64.22
0.236	34.194000	1714	34.16000	34.22800	-45.97	42.85
0.237	34.263000	1713	34.22800	34.29800	-46.27	44.12
0.238	34.338000	1712	34.29800	34.37800	-45.91	50.43
0.239	34.423000	1711	34.37800	34.46800	-44.71	56.74
0.240	34.515000	1710	34.46800	34.56200	-44.02	59.27
0.241	34.618000	1709	34.56200	34.67400	-44.70	70.62
0.242	34.729000	1708	34.67400	34.78400	-46.07	69.37
0.243	34.820000	1707	34.78400	34.85600	-47.25	45.41
0.244	34.897000	1706	34.85600	34.93800	-47.32	51.76
0.245	35.013000	1705	34.93800	35.08800	-47.31	94.79
0.246	35.137000	1704	35.08800	35.18600	-46.96	62.01
0.247	35.225000	1703	35.18600	35.26400	-46.94	49.39
0.248	35.291000	1702	35.26400	35.31800	-47.06	34.21
0.249	35.352000	1701	35.31800	35.38600	-46.89	43.07
0.250	35.459000	1700	35.38600	35.53200	-45.62	92.47
0.251	35.598000	1699	35.53200	35.66400	-44.83	83.60
0.252	35.702000	1698	35.66400	35.74000	-45.51	48.13
0.253	35.780000	1697	35.74000	35.82000	-45.18	50.70
0.254	35.875000	1696	35.82000	35.93000	-44.59	69.86
0.255	35.991000	1695	35.93000	36.05200	-44.97	77.68
0.256	36.131000	1694	36.05200	36.21000	-44.24	100.92
0.257	36.268000	1693	36.21000	36.32600	-44.44	74.26
0.258	36.375000	1692	36.32600	36.42400	-44.12	62.66
0.259	36.461000	1691	36.42400	36.49800	-44.30	47.25
0.260	36.552000	1690	36.49800	36.60600	-44.71	68.87
0.261	36.652000	1689	36.60600	36.69800	-44.13	58.60
0.262	36.738000	1688	36.69800	36.77800	-43.13	50.93
0.263	36.822000	1687	36.77800	36.86600	-43.16	56.06
0.264	36.909000	1686	36.86600	36.95200	-43.79	54.83
0.265	37.007000	1685	36.95200	37.06200	-44.65	70.19
0.266	37.101000	1684	37.06200	37.14000	-45.11	49.81
0.267	37.194000	1683	37.14000	37.24800	-44.85	69.02
0.268	37.288000	1682	37.24800	37.32800	-43.89	51.16
0.269	37.364000	1681	37.32800	37.40000	-43.64	46.08
0.270	37.458000	1680	37.40000	37.51600	-43.78	74.29
0.271	37.554000	1679	37.51600	37.59200	-44.06	48.71
0.272	37.635000	1678	37.59200	37.67800	-44.70	55.16
0.273	37.709000	1677	37.67800	37.74000	-45.09	39.79
0.274	37.787000	1676	37.74000	37.83400	-44.21	60.36
0.275	37.896000	1675	37.83400	37.95800	-42.53	79.75
0.276	38.008000	1674	37.95800	38.05800	-43.63	64.41
0.277	38.115000	1673	38.05800	38.17200	-44.38	73.53
0.278	38.208000	1672	38.17200	38.24400	-44.21	46.50
0.279	38.272000	1671	38.24400	38.30000	-44.82	36.20
0.280	38.327000	1670	38.30000	38.35400	-45.25	34.90
0.281	38.381000	1669	38.35400	38.40800	-45.25	34.90
0.282	38.470000	1668	38.40800	38.53200	-44.76	80.11
0.283	38.564000	1667	38.53200	38.59600	-44.40	41.33
0.284	38.627000	1666	38.59600	38.65800	-44.62	40.03
0.285	38.695000	1665	38.65800	38.73200	-44.65	47.76
0.286	38.769000	1664	38.73200	38.80600	-43.98	47.76
0.287	38.829000	1663	38.80600	38.85200	-43.60	29.70
0.288	38.881000	1662	38.85200	38.91000	-43.81	37.46
0.289	38.956000	1661	38.91000	39.00200	-45.16	59.47
0.290	39.055000	1660	39.00200	39.10800	-46.26	68.59
0.291	39.145000	1659	39.10800	39.18200	-46.65	47.92
0.292	39.220000	1658	39.18200	39.25800	-46.71	49.25
0.293	39.294000	1657	39.25800	39.33000	-46.87	46.69
0.294	39.365000	1656	39.33000	39.40000	-47.00	45.41
0.295	39.445500	1655	39.40000	39.49100	-47.12	59.06
0.296	39.513000	1654	39.49100	39.53500	-47.20	28.57
0.297	39.590000	1653	39.53500	39.64500	-46.82	71.47
0.298	39.686000	1652	39.64500	39.72700	-45.90	53.31
0.299	39.759000	1651	39.72700	39.79100	-44.63	41.63
0.300	39.843000	1650	39.79100	39.89500	-43.80	67.74
0.301	39.931000	1649	39.89500	39.96700	-44.20	46.96
0.302	40.015000	1648	39.96700	40.06300	-45.32	62.69
0.303	40.116000	1647	40.06300	40.16900	-46.69	69.33
0.304	40.203000	1646	40.16900	40.23700	-46.67	44.53
0.305	40.268000	1645	40.23700	40.29900	-45.64	40.64
0.306	40.369500	1644	40.29900	40.44000	-44.47	92.53
0.307	40.476000	1643	40.44000	40.51200	-44.33	47.30
0.308	40.565000	1642	40.51200	40.61800	-44.98	69.71
0.309	40.656000	1641	40.61800	40.69400	-45.41	50.04
0.310	40.747000	1640	40.69400	40.80000	-45.54	69.85
0.311	40.827000	1639	40.80000	40.85400	-45.92	35.58
0.312	40.882000	1638	40.85400	40.91000	-46.42	36.88
0.313	40.967000	1637	40.91000	41.02400	-46.32	75.05
0.314	41.087000	1636	41.02400	41.15000	-44.96	82.90
0.315	41.185000	1635	41.15000	41.22000	-43.61	46.03
0.316	41.289000	1634	41.22000	41.35800	-43.80	90.87
0.317	41.400000	1633	41.35800	41.44200	-44.85	55.46
0.318	41.483000	1632	41.44200	41.52400	-44.79	54.23
0.319	41.561000	1631	41.52400	41.59800	-43.81	49.03
0.320	41.653000	1630	41.59800	41.70800	-43.19	73.05
0.321	41.761000	1629	41.70800	41.81400	-43.35	70.56
0.322	41.849000	1628	41.81400	41.88400	-44.03	46.64
0.323	41.934000	1627	41.88400	41.98400	-45.95	66.59
0.324	42.023000	1626	41.98400	42.06200	-47.30	51.91
0.325	42.107000	1625	42.06200	42.15200	-47.17	59.87
0.326	42.187000	1624	42.15200	42.22200	-46.37	46.54
0.327	42.251000	1623	42.22200	42.28000	-45.62	38.56
0.328	42.344000	1622	42.28000	42.40800	-44.97	85.29
0.329	42.471000	1621	42.40800	42.53400	-46.02	84.19
